* curve d of figure 2 of Quickenden and Irvin
* translated to absorption coefficient of base e
* instead of base 10
* wavelength(nm) abs coeff(1/cm) 
196.710007   0.047979
 196.690002   0.038278
 196.669998   0.028861
 197.220001   0.019994
 198.360001   0.013091
 199.699997   0.009328
 200.470001   0.007442
 201.429993   0.006108
 203.160004   0.004477
 205.289993   0.003674
 206.460007   0.003472
 209.179993   0.002931
 211.520004   0.002545
 213.470001   0.002474
 215.419998   0.002339
 217.360001   0.002089
 219.500000   0.001866
 221.639999   0.001763
 223.589996   0.001620
 227.100006   0.001488
 229.830002   0.001368
 232.360001   0.001256
 233.729996   0.001222
 235.679993   0.001154
 237.820007   0.001061
 240.750000   0.001061
 242.699997   0.000975
 245.039993   0.000921
 247.380005   0.000921
 249.720001   0.000870
 251.270004   0.000777
 253.229996   0.000777
 255.570007   0.000735
 258.299988   0.000694
 260.640015   0.000675
 263.760010   0.000638
 266.290009   0.000570
 269.019989   0.000539
 272.140015   0.000509
 274.480011   0.000481
 276.820007   0.000455
 279.160004   0.000430
 281.510010   0.000418
 283.459991   0.000406
 286.579987   0.000384
 290.290009   0.000363
 293.609985   0.000353
 296.519989   0.000298
 300.029999   0.000266
 303.350006   0.000266
 308.029999   0.000244
 312.140015   0.000266
 315.649994   0.000231
 319.559998   0.000231
 323.850006   0.000212
