* curve b of figure 2 of Quickenden and Irvin
* translated to absorption coefficient of base e
* instead of base 10
* wavelength(nm) abs coeff(1/cm) 
 196.710007   0.049351
 197.250000   0.027276
 198.009995   0.019994
 198.389999   0.018896
 199.740005   0.015076
 200.509995   0.012726
 201.860001   0.010444
 203.600006   0.008100
 204.960007   0.007442
 205.350006   0.007034
 206.509995   0.006648
 209.240005   0.005772
 210.600006   0.005612
 212.350006   0.005156
 214.690002   0.004873
 216.449997   0.004605
 218.199997   0.004352
 219.369995   0.004231
 221.509995   0.003779
 223.460007   0.003779
 225.220001   0.003572
 227.559998   0.003376
 230.289993   0.003282
 233.220001   0.003102
 235.949997   0.002931
 238.289993   0.002770
 240.630005   0.002618
 242.580002   0.002474
 244.919998   0.002339
 247.449997   0.002210
 249.399994   0.002149
 251.350006   0.002031
 253.300003   0.001919
 256.029999   0.001866
 258.179993   0.001814
 260.130005   0.001714
 263.640015   0.001575
 267.149994   0.001531
 270.660004   0.001407
 273.390015   0.001292
 275.929993   0.001256
 278.660004   0.001154
 281.390015   0.001122
 283.929993   0.001061
 287.829987   0.000975
 290.750000   0.000895
 293.679993   0.000846
 296.989990   0.000800
 300.309998   0.000777
 303.429993   0.000735
 306.559998   0.000735
 309.880005   0.000694
 314.170013   0.000675
 317.880005   0.000638
 322.369995   0.000586
