* curve d of figure 2 of Quickenden and Irvin
* translated to absorption coefficient of base e
* instead of base 10
* wavelength(nm) abs coeff(1/cm) 
 196.740005   0.049351
 196.889999   0.032312
 197.449997   0.027276
 198.619995   0.025780
 199.369995   0.020567
 200.330002   0.017859
 201.289993   0.015507
 202.449997   0.014248
 203.610001   0.012726
 204.580002   0.012028
 205.550003   0.011367
 206.130005   0.010743
 209.429993   0.009328
 210.800003   0.009069
 212.360001   0.008571
 214.110001   0.008100
 215.470001   0.007875
 216.639999   0.007655
 217.610001   0.007442
 219.360001   0.007034
 221.509995   0.006648
 223.070007   0.006462
 224.630005   0.006283
 226.960007   0.005938
 229.110001   0.005612
 231.250000   0.005455
 233.389999   0.005156
 236.119995   0.004873
 239.240005   0.004605
 242.559998   0.004477
 245.869995   0.004113
 248.800003   0.003999
 252.309998   0.003779
 255.619995   0.003572
 260.100006   0.003282
 264.010010   0.003190
 265.950012   0.003015
 268.489990   0.002931
 271.220001   0.002850
 274.529999   0.002618
 276.880005   0.002618
 279.220001   0.002474
 282.730011   0.002339
 284.480011   0.002273
 287.790009   0.002089
 290.519989   0.001974
 293.829987   0.001866
 296.760010   0.001763
 299.880005   0.001666
 304.369995   0.001620
 307.880005   0.001531
 311.970001   0.001447
 315.480011   0.001368
 319.779999   0.001368
 324.470001   0.001330
